VAMAS Surface Chemical Analysis Standard Data Transfer Format 1988 May 4
Not specified
MI-600-BE9240AA
DESKTOP-MI6NA2R\kratos
20200909_AK_PVK_UPS.experiment
4
Casa Info Follows CasaXPS Version 2.3.22PR1.0
0
SourceAnalyserAngle: 54.735600 d
CasaRowLabel:AK_control
NORM
REGULAR
9
4
Index
d
PositionX [mm]
n
PositionY [mm]
n
PositionZ [mm]
n
0
0
0
0
9
wide
AK_control
2020
9
9
13
28
32
2
41
Casa Info Follows
0
0
0
0
Creation
Created by : DESKTOP-MI6NA2R\kratos
Date created : 09/09/2020 13:28
Computer : DESKTOP-MI6NA2R
Location
Location ID : AK_control
Sample : AK_control
Description : (25.507,20.108,-3.724)mm
Tilt : 0.00
Charge Neutraliser : Off
Settings
Excitation
Mode : XPS - monochromatic
Tuning : Spectroscopy
Emission current : 15.00mA
Anode library : Al
ESCA modes
Collimation : Slot
Lens : Hybrid
Resolution : 160.00
Scan
Deflection : (0.000, 0.000)mm
wide : 286.690-1491.690eV, Sweeps 1
Start : 286.690eV
End : 1491.690eV
Centre : 889.190eV
Width : 1205.000eV
Step size : 1.000eV
Number Steps : 1205
Dwell time : 100ms
Sweep time : 120s
Sweeps : 1
Instrument Conditions
Work function : -4.50
Acquisition Conditions
X-ray Power : 225.00W
XPS
1
25.5065
20.1084
-3.72434
Al (mono)
1486.69
225
1e+037
1e+037
1e+037
1e+037
FAT
160
1e+037
-4.5
1e+037
1e+037
1e+037
1e+037
1e+037
wide

-1
Kinetic energy
eV
286.69
1
2
Intensity
d
Transmission
d
pulse counting
0.0995025
1
0
1e+037
1e+037
1e+037
0
2412
0
10902
12.1975
15.5208
2808
12.1975
2885
12.2024
2916
12.2074
2948
12.2124
2868
12.2174
2915
12.2223
2844
12.2273
2977
12.2323
2996
12.2373
2937
12.2422
2853
12.2472
2830
12.2522
2878
12.2572
2910
12.2621
2937
12.2671
2909
12.2721
2943
12.2771
2961
12.282
2987
12.287
2994
12.292
3067
12.297
3011
12.3019
2981
12.3069
2938
12.3119
2938
12.3141
3114
12.3151
3038
12.3161
2998
12.3171
3016
12.3181
3033
12.3191
3046
12.3201
3037
12.3211
3001
12.3221
3063
12.3231
3081
12.3241
3075
12.3251
3095
12.3261
3092
12.3271
3097
12.3281
3071
12.3291
3192
12.3301
3171
12.3311
3018
12.3321
3078
12.3331
3136
12.3341
3148
12.3351
3099
12.3361
3116
12.3371
3146
12.3381
3199
12.3391
3205
12.3401
3202
12.3411
3187
12.3421
3174
12.3431
3098
12.3441
3140
12.3451
3199
12.3461
3191
12.3471
3190
12.3481
3195
12.3491
3199
12.3501
3210
12.3511
3203
12.3521
3308
12.3531
3214
12.3541
3167
12.3551
3281
12.3561
3249
12.3571
3200
12.3581
3282
12.3592
3208
12.3602
3228
12.3612
3256
12.3622
3274
12.3632
3356
12.3649
3306
12.367
3348
12.3692
3357
12.3713
3301
12.3734
3286
12.3755
3333
12.3776
3426
12.3797
3465
12.3819
3449
12.384
3384
12.3861
3423
12.3882
3473
12.3903
3348
12.3924
3409
12.3946
3333
12.3967
3390
12.3988
3344
12.4009
3405
12.403
3356
12.4051
3373
12.4073
3398
12.4094
3412
12.4115
3394
12.4136
3333
12.4157
3335
12.4178
3363
12.42
3374
12.4221
3395
12.4242
3438
12.4263
3355
12.4284
3396
12.4305
3416
12.4327
3417
12.4348
3378
12.4369
3418
12.439
3484
12.4411
3467
12.4432
3459
12.4454
3453
12.4475
3482
12.4496
3575
12.4517
3437
12.4538
3456
12.4559
3537
12.4581
3533
12.4602
3482
12.4623
3473
12.4644
3516
12.4665
3457
12.4686
3430
12.4708
3485
12.473
3622
12.4752
3685
12.4773
3595
12.4795
3571
12.4817
3543
12.4839
3459
12.486
3471
12.4882
3475
12.4904
3469
12.4926
3439
12.4947
3419
12.4969
3359
12.4991
3461
12.5013
3477
12.5034
3482
12.5056
3447
12.5078
3464
12.51
3442
12.5121
3348
12.5143
3315
12.5165
3374
12.5187
3382
12.5208
3276
12.523
3354
12.5252
3347
12.5274
3187
12.5295
3114
12.5317
3133
12.5339
3026
12.5361
3207
12.5382
3238
12.5404
3269
12.5426
3187
12.5448
3123
12.5469
3099
12.5491
3072
12.5513
2941
12.5535
2994
12.5556
3112
12.5578
3018
12.56
3010
12.5622
3060
12.5643
3039
12.5665
3145
12.5687
3070
12.5709
3062
12.573
3103
12.5752
3116
12.5774
3185
12.5815
3217
12.5864
3184
12.5913
3197
12.5962
3212
12.6011
3225
12.606
3235
12.6109
3279
12.6158
3233
12.6207
3279
12.6256
3379
12.6305
3380
12.6354
3292
12.6403
3401
12.6452
3419
12.6501
3370
12.655
3416
12.6599
3396
12.6648
3369
12.6697
3427
12.6746
3517
12.6795
3468
12.6844
3495
12.6893
3524
12.6942
3555
12.6991
3521
12.704
3602
12.7089
3541
12.7138
3629
12.7187
3638
12.7236
3675
12.7285
3701
12.7334
3731
12.7383
3782
12.7432
3900
12.7481
3765
12.753
3664
12.7579
3793
12.7628
3814
12.7677
3820
12.7726
3787
12.7775
3883
12.7824
3863
12.7873
3786
12.7922
4059
12.7971
4515
12.802
4588
12.8069
4413
12.8118
4432
12.8167
4318
12.8216
4084
12.8237
3654
12.8247
3345
12.8256
3207
12.8265
3121
12.8274
3099
12.8284
3543
12.8293
4022
12.8302
3705
12.8311
3260
12.8321
3123
12.833
2827
12.8339
2718
12.8348
2689
12.8358
2618
12.8367
2601
12.8376
2638
12.8386
2680
12.8395
2590
12.8404
2538
12.8413
2591
12.8423
2550
12.8432
2569
12.8441
2640
12.845
2669
12.846
2616
12.8469
2635
12.8478
2657
12.8487
2659
12.8497
2702
12.8506
2660
12.8515
2770
12.8524
2706
12.8534
2603
12.8543
2712
12.8552
2711
12.8562
2621
12.8571
2729
12.858
2638
12.8589
2654
12.8599
2701
12.8608
2729
12.8617
2831
12.8626
3011
12.8636
3224
12.8645
3295
12.8654
3182
12.8663
2965
12.8673
2870
12.8682
2733
12.8691
2715
12.872
2737
12.8759
2590
12.8797
2571
12.8835
2512
12.8873
2453
12.8912
2482
12.895
2574
12.8988
2619
12.9026
2657
12.9065
2591
12.9103
2564
12.9141
2534
12.9179
2598
12.9218
2565
12.9256
2558
12.9294
2565
12.9332
2492
12.9371
2498
12.9409
2542
12.9447
2511
12.9485
2587
12.9524
2664
12.9562
2592
12.96
2462
12.9638
2572
12.9677
2578
12.9715
2623
12.9753
2599
12.9791
2647
12.9829
2650
12.9868
2723
12.9906
2781
12.9944
2706
12.9982
2746
13.0021
2693
13.0059
2701
13.0097
2681
13.0135
2644
13.0174
2651
13.0212
2646
13.025
2694
13.0288
2631
13.0327
2605
13.0365
2608
13.0403
2589
13.0441
2712
13.048
2754
13.0518
2920
13.0556
3153
13.0594
3507
13.0631
3739
13.0666
3525
13.0702
3175
13.0737
2779
13.0772
2531
13.0808
2382
13.0843
2329
13.0879
2270
13.0914
2242
13.095
2221
13.0985
2238
13.102
2280
13.1056
2199
13.1091
2167
13.1127
2236
13.1162
2222
13.1198
2185
13.1233
2143
13.1268
2168
13.1304
2146
13.1339
2189
13.1375
2161
13.141
2206
13.1446
2280
13.1481
2227
13.1516
2153
13.1552
2254
13.1587
2203
13.1623
2156
13.1658
2182
13.1694
2180
13.1729
2244
13.1764
2211
13.18
2235
13.1835
2228
13.1871
2180
13.1906
2238
13.1942
2203
13.1977
2260
13.2012
2209
13.2048
2211
13.2083
2190
13.2119
2210
13.2154
2182
13.219
2233
13.2225
2224
13.226
2253
13.2296
2283
13.2331
2262
13.2367
2263
13.2382
2237
13.2389
2223
13.2397
2294
13.2404
2301
13.2411
2305
13.2418
2284
13.2425
2256
13.2432
2324
13.2439
2341
13.2446
2289
13.2453
2309
13.246
2312
13.2467
2322
13.2474
2364
13.2481
2362
13.2488
2388
13.2495
2306
13.2502
2326
13.2509
2367
13.2516
2325
13.2523
2357
13.253
2369
13.2537
2415
13.2544
2349
13.2551
2361
13.2558
2316
13.2565
2337
13.2572
2406
13.2579
2396
13.2586
2468
13.2593
2373
13.26
2367
13.2607
2379
13.2614
2315
13.2621
2426
13.2628
2379
13.2635
2448
13.2642
2422
13.2649
2438
13.2656
2395
13.2666
2387
13.2677
2390
13.2688
2404
13.27
2376
13.2711
2383
13.2722
2415
13.2733
2426
13.2744
2508
13.2755
2504
13.2767
2568
13.2778
2495
13.2789
2414
13.28
2451
13.2811
2422
13.2822
2472
13.2834
2495
13.2845
2530
13.2856
2549
13.2867
2536
13.2878
2444
13.2889
2568
13.29
2590
13.2912
2567
13.2923
2514
13.2934
2488
13.2945
2489
13.2956
2527
13.2967
2555
13.2979
2552
13.299
2521
13.3001
2611
13.3012
2533
13.3023
2542
13.3034
2588
13.3046
2563
13.3057
2518
13.3068
2565
13.3079
2579
13.309
2654
13.3101
2653
13.3113
2510
13.3124
2596
13.3135
2538
13.3146
2554
13.3157
2527
13.3168
2580
13.318
2589
13.3191
2583
13.3202
2619
13.3213
2627
13.3224
2658
13.3235
2579
13.3246
2643
13.3258
2728
13.3269
2676
13.328
2652
13.3291
2556
13.3302
2558
13.3313
2636
13.3325
2609
13.3361
2671
13.3408
2651
13.3455
2632
13.3503
2702
13.355
2659
13.3598
2593
13.3645
2568
13.3692
2641
13.374
2696
13.3787
2671
13.3834
2700
13.3882
2638
13.3929
2648
13.3976
2683
13.4024
2651
13.4071
2698
13.4118
2613
13.4166
2760
13.4213
2694
13.426
2678
13.4308
2686
13.4355
2724
13.4403
2743
13.445
2766
13.4497
2766
13.4545
2724
13.4592
2737
13.4639
2714
13.4687
2699
13.4734
2738
13.4781
2745
13.4829
2784
13.4876
2803
13.4923
2854
13.4971
2806
13.5018
2817
13.5065
2836
13.5113
2825
13.516
2812
13.5208
2801
13.5255
2788
13.5302
2814
13.535
2985
13.5397
2882
13.5444
2940
13.5492
2947
13.5539
2884
13.5586
2973
13.5634
2996
13.5681
3003
13.57
3005
13.5707
2956
13.5713
3006
13.572
3097
13.5726
3093
13.5733
3117
13.5739
3133
13.5746
3107
13.5752
3127
13.5759
3173
13.5765
3317
13.5772
3289
13.5778
3322
13.5785
3344
13.5791
3313
13.5798
3430
13.5804
3331
13.5811
3372
13.5817
3496
13.5824
3523
13.583
3446
13.5837
3568
13.5844
3619
13.585
3641
13.5857
3633
13.5863
3710
13.587
3790
13.5876
3938
13.5883
3972
13.5889
4124
13.5896
4112
13.5902
4075
13.5909
4012
13.5915
3915
13.5922
3749
13.5928
3669
13.5935
3503
13.5941
3467
13.5948
3485
13.5954
3616
13.5961
3612
13.5967
3743
13.5974
4225
13.598
6911
13.5987
10415
13.5993
6384
13.6
3140
13.6006
2646
13.6013
2458
13.6019
2303
13.6026
2216
13.6032
2268
13.6039
2221
13.6045
2442
13.6052
4455
13.6058
10642
13.6065
10902
13.6071
3557
13.6078
1650
13.6084
1327
13.6118
1280
13.6164
1198
13.621
1134
13.6255
1118
13.6301
1144
13.6347
1122
13.6393
1106
13.6439
1129
13.6484
1104
13.653
1145
13.6576
1147
13.6622
1101
13.6668
1088
13.6713
1089
13.6759
1122
13.6805
1102
13.6851
1153
13.6897
1091
13.6942
1084
13.6988
1066
13.7034
1077
13.708
1094
13.7126
1079
13.7171
1099
13.7217
1075
13.7263
1075
13.7309
1061
13.7354
1062
13.74
1105
13.7446
1112
13.7492
1090
13.7538
1090
13.7583
1107
13.7629
1086
13.7675
1087
13.7721
1108
13.7767
1120
13.7812
1100
13.7858
1115
13.7904
1110
13.7937
1113
13.7963
1113
13.799
1166
13.8016
1111
13.8043
1135
13.807
1171
13.8096
1158
13.8123
1181
13.8149
1124
13.8176
1157
13.8202
1174
13.8229
1127
13.8256
1103
13.8282
1152
13.8309
1135
13.8335
1174
13.8362
1217
13.8389
1169
13.8415
1138
13.8442
1164
13.8468
1171
13.8495
1207
13.8522
1182
13.8548
1193
13.8575
1181
13.8601
1190
13.8628
1226
13.8655
1175
13.8681
1164
13.8708
1205
13.8734
1226
13.8761
1199
13.8787
1194
13.8814
1264
13.8841
1136
13.8867
1165
13.8894
1243
13.892
1250
13.8947
1215
13.8974
1239
13.9
1217
13.9027
1248
13.9053
1244
13.908
1201
13.9107
1171
13.9133
1223
13.916
1236
13.9186
1211
13.9213
1236
13.924
1261
13.9266
1238
13.9293
1222
13.9319
1193
13.9346
1160
13.9373
1190
13.9399
1214
13.9426
1248
13.9452
1256
13.9479
1279
13.9505
1253
13.953
1263
13.9554
1231
13.9578
1264
13.9602
1286
13.9625
1284
13.9649
1280
13.9673
1229
13.9697
1228
13.9721
1231
13.9745
1268
13.9768
1296
13.9792
1330
13.9816
1303
13.984
1282
13.9864
1310
13.9887
1306
13.9911
1261
13.9935
1241
13.9959
1283
13.9983
1283
14.0007
1256
14.003
1280
14.0054
1371
14.0078
1340
14.0102
1347
14.0126
1327
14.0149
1276
14.0173
1309
14.0197
1355
14.0221
1348
14.0245
1335
14.0269
1305
14.0292
1301
14.0316
1338
14.034
1340
14.0364
1339
14.0388
1390
14.0411
1381
14.0435
1367
14.0459
1421
14.0476
1432
14.0489
1338
14.0503
1382
14.0516
1389
14.053
1415
14.0543
1358
14.0557
1392
14.057
1432
14.0584
1421
14.0597
1370
14.061
1397
14.0624
1471
14.0637
1523
14.0651
1511
14.0664
1402
14.0678
1427
14.0691
1521
14.0705
1502
14.0718
1540
14.0732
1568
14.0745
1565
14.0759
1539
14.0772
1567
14.0786
1541
14.0799
1543
14.0813
1552
14.0826
1504
14.084
1547
14.0853
1532
14.0867
1583
14.088
1583
14.0893
1598
14.0907
1628
14.092
1588
14.0934
1643
14.0947
1695
14.0961
1735
14.0974
1874
14.0988
2120
14.1001
2092
14.1015
2074
14.1028
1819
14.1042
1708
14.1055
1568
14.1069
1529
14.1082
1487
14.1096
1429
14.1109
1452
14.1123
1477
14.1136
1432
14.1164
1408
14.1198
1400
14.1233
1400
14.1267
1419
14.1301
1431
14.1336
1455
14.137
1442
14.1404
1478
14.1439
1597
14.1473
1813
14.1507
2012
14.1542
2252
14.1576
2135
14.1611
1778
14.1645
1480
14.1679
1292
14.1714
1190
14.1748
1118
14.1782
1044
14.1817
1003
14.1851
973
14.1885
965
14.192
1010
14.1954
1111
14.1988
1368
14.2023
1171
14.2057
929
14.2091
926
14.2126
925
14.216
873
14.2195
891
14.2229
865
14.2263
877
14.2298
910
14.2332
922
14.2366
963
14.2401
933
14.2435
916
14.2469
917
14.2504
939
14.2525
872
14.2541
863
14.2557
912
14.2573
928
14.2588
900
14.2604
915
14.262
924
14.2636
919
14.2651
938
14.2667
921
14.2683
947
14.2699
929
14.2715
957
14.273
938
14.2746
916
14.2762
921
14.2778
928
14.2794
948
14.2809
903
14.2825
913
14.2841
936
14.2857
919
14.2872
920
14.2888
916
14.2904
926
14.292
901
14.2936
935
14.2951
999
14.2967
986
14.2983
961
14.2999
936
14.3014
948
14.303
977
14.3046
947
14.3062
977
14.3078
988
14.3093
937
14.3109
908
14.3125
957
14.3141
970
14.3157
986
14.3172
975
14.3188
966
14.3204
969
14.322
977
14.3235
1003
14.3251
1026
14.3267
1078
14.3283
1008
14.3299
983
14.3314
1033
14.333
1015
14.3346
1007
14.3362
985
14.3377
996
14.3393
992
14.3409
988
14.3425
959
14.3441
1002
14.3456
1011
14.3472
1052
14.3488
1030
14.3504
1046
14.352
1064
14.3535
973
14.3551
1031
14.3567
1089
14.3583
1069
14.3598
1073
14.3614
1082
14.363
1055
14.3646
1095
14.3662
1069
14.3677
1091
14.3693
1048
14.3709
1062
14.3725
1033
14.374
1061
14.3756
1021
14.3772
1020
14.3788
1050
14.3804
1069
14.3819
1037
14.3835
1050
14.3851
1062
14.3867
1073
14.3883
1116
14.3898
1132
14.3914
1106
14.393
1093
14.397
1043
14.402
1100
14.4071
1068
14.4121
1082
14.4172
1093
14.4223
1141
14.4273
1232
14.4324
1180
14.4374
1113
14.4425
1140
14.4476
1225
14.4526
1165
14.4577
1113
14.4627
1095
14.4678
1176
14.4729
1143
14.4779
1141
14.483
1161
14.488
1090
14.4931
1119
14.4982
1176
14.5032
1152
14.5083
1131
14.5133
1138
14.5184
1163
14.5235
1177
14.5285
1169
14.5336
1175
14.5386
1164
14.5437
1134
14.5488
1149
14.5538
1168
14.5589
1195
14.564
1123
14.569
1218
14.5741
1229
14.5791
1182
14.5842
1222
14.5893
1185
14.5943
1185
14.5994
1211
14.6044
1275
14.6095
1246
14.6146
1218
14.6196
1248
14.6247
1197
14.6297
1235
14.6348
1208
14.6399
1206
14.6449
1235
14.6483
1203
14.651
1224
14.6536
1219
14.6563
1252
14.659
1186
14.6616
1228
14.6643
1272
14.6669
1225
14.6696
1234
14.6722
1270
14.6749
1242
14.6776
1271
14.6802
1264
14.6829
1309
14.6855
1268
14.6882
1310
14.6909
1287
14.6935
1248
14.6962
1221
14.6988
1236
14.7015
1301
14.7041
1333
14.7068
1336
14.7095
1276
14.7121
1280
14.7148
1296
14.7174
1335
14.7201
1312
14.7228
1331
14.7254
1336
14.7281
1390
14.7307
1343
14.7334
1399
14.7361
1284
14.7387
1392
14.7414
1414
14.744
1388
14.7467
1404
14.7493
1389
14.752
1361
14.7547
1394
14.7573
1365
14.76
1443
14.7626
1450
14.7653
1457
14.768
1487
14.7706
1472
14.7733
1505
14.7759
1417
14.7786
1461
14.7812
1450
14.7839
1439
14.7866
1499
14.7892
1554
14.7919
1408
14.7945
1513
14.7972
1612
14.7999
1664
14.8025
1748
14.8052
1717
14.8049
1629
14.8034
1495
14.8019
1509
14.8003
1515
14.7988
1547
14.7973
1503
14.7957
1499
14.7942
1580
14.7926
1529
14.7911
1566
14.7896
1558
14.788
1577
14.7865
1603
14.785
1625
14.7834
1592
14.7819
1638
14.7804
1699
14.7788
1727
14.7773
1754
14.7757
1811
14.7742
1800
14.7727
1770
14.7711
1829
14.7696
1878
14.7681
1970
14.7665
1948
14.765
1956
14.7635
1976
14.7619
1988
14.7604
1913
14.7588
1929
14.7573
1904
14.7558
1863
14.7542
1924
14.7527
1984
14.7512
1919
14.7496
1872
14.7481
1799
14.7466
1856
14.745
2063
14.7435
2661
14.7419
4437
14.7404
4134
14.7389
1955
14.7373
1751
14.7358
2707
14.7343
5059
14.7327
3982
14.7312
1455
14.7297
1104
14.7281
1036
14.7266
960
14.725
871
14.7235
889
14.722
880
14.7204
856
14.724
877
14.7299
885
14.7358
820
14.7417
912
14.7476
906
14.7535
947
14.7594
1023
14.7653
990
14.7712
867
14.7771
714
14.7831
607
14.789
593
14.7949
614
14.8008
566
14.8067
545
14.8126
598
14.8185
584
14.8244
580
14.8303
612
14.8362
633
14.8421
641
14.848
619
14.8539
621
14.8598
634
14.8657
594
14.8716
594
14.8775
639
14.8834
618
14.8893
636
14.8952
600
14.9011
602
14.907
627
14.9129
624
14.9188
646
14.9247
677
14.9306
667
14.9365
667
14.9424
650
14.9483
676
14.9542
700
14.9601
717
14.966
674
14.9719
720
14.9778
774
14.9837
780
14.9896
759
14.9955
723
15.0014
723
15.0073
717
15.0132
702
15.0191
703
15.025
688
15.0309
700
15.0368
716
15.0427
729
15.0487
805
15.0546
742
15.0605
744
15.0664
818
15.0723
788
15.0782
809
15.0841
808
15.09
787
15.0959
841
15.1018
830
15.1077
844
15.1136
807
15.1195
755
15.1254
741
15.1313
717
15.1372
637
15.1431
610
15.149
616
15.1549
551
15.1608
568
15.1667
576
15.1726
859
15.1785
1815
15.1844
3018
15.1903
3041
15.1962
2567
15.2021
689
15.208
316
15.2139
250
15.2198
256
15.2257
215
15.2316
226
15.2375
243
15.2434
233
15.2493
233
15.2552
240
15.2611
238
15.267
239
15.2729
221
15.2788
258
15.2847
252
15.2906
222
15.2965
203
15.3024
212
15.3083
211
15.3143
222
15.3202
230
15.3261
252
15.332
242
15.3379
235
15.3438
319
15.3497
551
15.3556
653
15.3615
496
15.3674
781
15.3733
525
15.3792
161
15.3851
114
15.391
115
15.3969
110
15.4028
100
15.4087
99
15.4146
75
15.4205
53
15.4264
63
15.4323
53
15.4382
42
15.4441
44
15.45
98
15.4559
174
15.4618
233
15.4677
229
15.4736
98
15.4795
14
15.4854
4
15.4913
2
15.4972
0
15.5031
1
15.509
0
15.5149
0
15.5208
I3d
AK_control
2020
9
9
14
52
56
2
43
Casa Info Follows
0
0
0
0
Creation
Created by : DESKTOP-MI6NA2R\kratos
Date created : 09/09/2020 14:52
Computer : DESKTOP-MI6NA2R
Location
Location ID : AK_control
Sample : AK_control
Description : (25.507,20.108,-3.910)mm
Tilt : 0.00
Charge Neutraliser : Off
Settings
Excitation
Mode : XPS - monochromatic
Tuning : Spectroscopy
Emission current : 10.00mA
Anode library : Al
ESCA modes
Collimation : Slot
Lens : Hybrid
Resolution : 40.00
Scan
Deflection : (0.000, 0.000)mm
I3d : 851.690-871.690eV, Sweeps 2
Start : 851.690eV
End : 871.690eV
Centre : 861.690eV
Width : 20.000eV
Step size : 0.200eV
Number Steps : 100
Dwell time : 594ms
